RIES  Elba-Nr.: 6 Wmin:    80.0 Wmax:  850.0  Nr.2 ab 1.3.06
77   Wertepaare (W,Q)
80     52.0
90     59.4
100    67.4
110    76.0
120    85.3
130    95.2
140   106
150   117
160   129
170   142
180   155
190   169
200   184
210   200
220   217
230   234
240   253
250   272
260   292
270   312
280   334
290   357
300   380
310   405
320   430
330   457
340   482
350   508
360   535
370   563
380   591
390   620
400   650
410   680
420   711
430   743
440   776
450   809
460   843
470   877
480   912
490   948
500   985
510  1020
520  1060
530  1100
540  1140
550  1180
560  1220
570  1260
580  1300
590  1350
600  1400
610  1450
620  1500
630  1550
640  1600
650  1650
660  1710
670  1770
680  1820
690  1880
700  1940
710  2000
720  2060
730  2130
740  2190
750  2260
760  2330
770  2400
780  2470
800  2610
810  2690
820  2760
830  2840
840  2920
850  3000
