USTI.at: 	Wmin: 110.0 Wmax: 1250.0 gÃ¼ltig ab: 01.01.1970 00:00:00
  115 Wertepaare (W,Q)
  110   52.0
  120   63.0
  130   75.0
  140   88.0
  150  102.0
  160  117.0
  170  133.0
  180  150.0
  190  168.0
  200  187.0
  210  207.0
  220  228.0
  230  250.0
  240  273.0
  250  297.0
  260  321.0
  270  345.0
  280  370.0
  290  395.0
  300  420.0
  310  445.0
  320  471.0
  330  497.0
  340  523.0
  350  550.0
  360  577.0
  370  604.0
  380  631.0
  390  659.0
  400  687.0
  410  715.0
  420  744.0
  430  773.0
  440  802.0
  450  832.0
  460  861.0
  470  891.0
  480  922.0
  490  952.0
  500  983.0
  510 1010.0
  520 1050.0
  530 1080.0
  540 1110.0
  550 1140.0
  560 1170.0
  570 1210.0
  580 1240.0
  590 1270.0
  600 1310.0
  610 1340.0
  620 1380.0
  630 1410.0
  640 1450.0
  650 1490.0
  660 1530.0
  670 1560.0
  680 1600.0
  690 1640.0
  700 1680.0
  710 1720.0
  720 1770.0
  730 1810.0
  740 1850.0
  750 1890.0
  760 1940.0
  770 1980.0
  780 2030.0
  790 2070.0
  800 2120.0
  810 2160.0
  820 2210.0
  830 2260.0
  840 2310.0
  850 2360.0
  860 2410.0
  870 2460.0
  880 2510.0
  890 2560.0
  900 2610.0
  910 2660.0
  920 2720.0
  930 2780.0
  940 2830.0
  950 2890.0
  960 2950.0
  970 3010.0
  980 3070.0
  990 3140.0
 1000 3200.0
 1010 3270.0
 1020 3340.0
 1030 3410.0
 1040 3470.0
 1050 3550.0
 1060 3620.0
 1070 3690.0
 1080 3770.0
 1090 3840.0
 1100 3920.0
 1110 4000.0
 1120 4080.0
 1130 4160.0
 1140 4240.0
 1150 4320.0
 1160 4410.0
 1170 4490.0
 1180 4580.0
 1190 4670.0
 1200 4760.0
 1210 4850.0
 1220 4940.0
 1230 5040.0
 1240 5130.0
 1250 5230.0
